//ZT channel integrated photon spectrum
MASS	Energy Spectrum
5.0	0.0
6.0	0.0
8.0	0.0
10.0	0.0
15.0	0.0
20.0	0.0
25.0	0.0
30.0	0.0
40.0	0.0
50.0	0.0
60.0	0.0
70.0	0.0
80.0	0.0
90.0	0.0
100.0	9.996517596418405
110.0	9.835153553906073
120.0	10.60305861310637
130.0	11.436927536202024
140.0	11.376741376126912
150.0	12.257793127016066
160.0	13.157367728541672
180.0	14.051005164866105
200.0	14.977626453495947
220.0	14.95332591818691
240.0	15.912545580876742
260.0	16.882027484402364
280.0	16.888931006922245
300.0	17.86689950570113
330.0	18.850063282768332
360.0	19.828132099001873
400.0	20.822907998584146
450.0	21.811022794707565
500.0	21.889623483467446
550.0	22.88501629677091
600.0	23.853011245604485
650.0	24.79603020013182
700.0	24.88989791065135
750.0	25.804059689134036
800.0	26.70582203178069
900.0	27.651011049881706
1000.0	28.691784696706026
1100.0	28.753492322430493
1200.0	29.641061212384958
1300.0	30.477053148124053
1500.0	31.450914740941684
1700.0	32.3821469402942
2000.0	33.934940361290266
2500.0	35.18789153771003
3000.0	36.75805060423924
4000.0	39.083658459347205
5000.0	40.55810084551158
6000.0	42.12279641496694
7000.0	43.33310676741705
8000.0	44.591538638886455
9000.0	45.62748272449059
10000.0	47.508456315804416
12000.0	48.31173481131158
15000.0	50.62924878552478
20000.0	53.95707922241757
30000.0	59.4633677478635
50000.0	68.02292065656587
100000.0	83.06079412107617
