//t channel integrated photon spectrum
MASS	Energy Spectrum
5.0	0.0
6.0	0.0
8.0	0.0
10.0	0.0
15.0	0.0
20.0	0.0
25.0	0.0
30.0	0.0
40.0	0.0
50.0	0.0
60.0	0.0
70.0	0.0
80.0	0.0
90.0	0.0
100.0	0.0
110.0	0.0
120.0	0.0
130.0	0.0
140.0	0.0
150.0	0.0
160.0	0.0
180.0	19.61025654592583
200.0	20.70902930601858
220.0	20.46104228734728
240.0	21.857294048341227
260.0	23.34132413628128
280.0	23.300149014451215
300.0	24.892037264171705
330.0	26.55338014131941
360.0	28.28690476359469
400.0	30.109049102027313
450.0	32.03513458136157
500.0	32.224558325548344
550.0	34.23374258117825
600.0	36.28443994291322
650.0	38.36971578975664
700.0	38.57772347926016
750.0	40.7116050245605
800.0	42.862976431126086
900.0	45.2498612646897
1000.0	47.762667300330676
1100.0	48.05506876248067
1200.0	50.47332898651953
1300.0	52.899576199695545
1500.0	55.69270030850283
1700.0	58.48553427010384
2000.0	63.65293415716535
2500.0	67.33647045569569
3000.0	73.00250041935593
4000.0	81.82874748847104
5000.0	86.28727923965282
6000.0	92.4803701187579
7000.0	96.45024080242153
8000.0	102.15024401193264
9000.0	105.76521366726571
10000.0	110.61743536311036
12000.0	114.18619807858036
15000.0	121.82435172186484
20000.0	132.69277087318756
30000.0	147.09030009823795
50000.0	167.37657553710378
100000.0	199.75054011015058
