//g channel integrated photon spectrum
MASS	Energy Spectrum
5.0	0.501646067303186
6.0	0.740232355780514
8.0	1.2200839011717366
10.0	1.6221721410279617
15.0	2.3523876444777545
20.0	3.327563114980922
25.0	3.658300876217925
30.0	4.4927918818493735
40.0	5.954504182660662
50.0	6.475809824991461
60.0	7.6837655068061785
70.0	8.335674421417337
80.0	9.766458426474129
90.0	10.542969472380388
100.0	11.359749577970392
110.0	11.373790342260145
120.0	12.239500914545458
130.0	13.141423437359226
140.0	13.168838642235098
150.0	14.118823422002935
160.0	15.10743150310716
180.0	16.16936203266827
200.0	17.279789267537385
220.0	17.358770355159628
240.0	18.520384789692457
260.0	19.71352359410931
280.0	19.804433287832214
300.0	21.041783277666937
330.0	22.359591530562483
360.0	23.723750075392672
400.0	25.170532931550916
450.0	26.70259080955624
500.0	26.9435636383096
550.0	28.50993672145247
600.0	30.114751897940003
650.0	31.74576017566148
700.0	31.971211421623106
750.0	33.64546091423692
800.0	35.339041434739435
900.0	37.2980776206431
1000.0	39.45399319501911
1100.0	39.694691503311496
1200.0	41.66447296351786
1300.0	43.684666492323295
1500.0	46.10623489579171
1700.0	48.5294285151231
2000.0	52.9919344379846
2500.0	56.41707712204557
3000.0	61.527229479273224
4000.0	69.80841353814026
5000.0	74.21032155216425
6000.0	80.28132998665173
7000.0	84.28088502897013
8000.0	90.09080436467481
9000.0	93.8247898561491
10000.0	98.60888320547939
12000.0	102.66677123943386
15000.0	110.82608424869662
20000.0	122.67628846803609
30000.0	138.41106817373475
50000.0	160.6545136153043
100000.0	196.68542446818887
