//Z channel integrated photon spectrum
MASS	Energy Spectrum
5.0	0.0
6.0	0.0
8.0	0.0
10.0	0.0
15.0	0.0
20.0	0.0
25.0	0.0
30.0	0.0
40.0	0.0
50.0	0.0
60.0	0.0
70.0	0.0
80.0	0.0
90.0	0.0
100.0	9.982693265786773
110.0	9.822546071390136
120.0	10.590892175898478
130.0	11.432512924664817
140.0	11.380711541091646
150.0	12.27338651916718
160.0	13.187186499899285
180.0	14.104991844593737
200.0	15.056601099234399
220.0	15.043692368055446
240.0	16.027439696379087
260.0	17.022434097631212
280.0	17.036269417702968
300.0	18.04087082701859
330.0	19.055403815260895
360.0	20.066575122791047
400.0	21.099277350262575
450.0	22.130055752971916
500.0	22.221528338073654
550.0	23.26216029973874
600.0	24.27750532088831
650.0	25.270277730513587
700.0	25.377221211098192
750.0	26.343634352114236
800.0	27.300221651493306
900.0	28.31540794126923
1000.0	29.427126034749232
1100.0	29.515718309791087
1200.0	30.47604093318496
1300.0	31.389721086878563
1500.0	32.46517185659263
1700.0	33.4987165620638
2000.0	35.236514414833074
2500.0	36.65368909180673
3000.0	38.44910945456889
4000.0	41.14986760219939
5000.0	42.84581605292738
6000.0	44.68810411839231
7000.0	46.09304272114509
8000.0	47.605363435574716
9000.0	48.81768635773907
10000.0	50.9042865437847
12000.0	51.92485468772512
15000.0	54.61606645451024
20000.0	58.470507991045636
30000.0	64.71490773083701
50000.0	74.33361991333503
100000.0	91.13699722570712
