//c channel integrated photon spectrum
MASS	Energy Spectrum
5.0	0.5019328981565714
6.0	0.7400335796002596
8.0	1.220405953919318
10.0	1.621793287076958
15.0	2.3526902643351275
20.0	3.327334713934415
25.0	3.6591025333053104
30.0	4.492076151980741
40.0	5.954643639947668
50.0	6.481694324653334
60.0	7.6981329627851744
70.0	8.350923049100553
80.0	9.786842394062463
90.0	10.564175118592127
100.0	11.379860560640125
110.0	11.394781667029342
120.0	12.259327868303451
130.0	13.16148997661619
140.0	13.188269975244816
150.0	14.137399166542204
160.0	15.121514281571883
180.0	16.191500472710477
200.0	17.30956728792443
220.0	17.398291802069508
240.0	18.565422552069457
260.0	19.767569773743766
280.0	19.8610674131796
300.0	21.118331294406843
330.0	22.452228552031173
360.0	23.831254051686233
400.0	25.292774347888454
450.0	26.85557593878002
500.0	27.105659213560354
550.0	28.69875603280382
600.0	30.33313827716828
650.0	31.98605551737472
700.0	32.23597345292622
750.0	33.92130681603208
800.0	35.645330424476455
900.0	37.63667433759186
1000.0	39.83871895438059
1100.0	40.098237159735405
1200.0	42.12342177280624
1300.0	44.167234998591866
1500.0	46.6308588567876
1700.0	49.10621046918503
2000.0	53.672309407278604
2500.0	57.18071684237441
3000.0	62.40452598356499
4000.0	70.86011264524817
5000.0	75.3440008853449
6000.0	81.52828211502319
7000.0	85.61245676938259
8000.0	91.45886094095265
9000.0	95.25998158376218
10000.0	100.11616125428947
12000.0	104.22772294220313
15000.0	112.43670198122102
20000.0	124.35102942942461
30000.0	140.12857058036272
50000.0	162.44176595291253
100000.0	198.22072182048436
