//q channel integrated photon spectrum
MASS	Energy Spectrum
5.0	0.4424606567508015
6.0	0.6690747421490862
8.0	1.1353585157133823
10.0	1.5334423237230115
15.0	2.265993924060089
20.0	3.2451355488055427
25.0	3.582739688850229
30.0	4.422795631934796
40.0	5.897894075334497
50.0	6.428722831948646
60.0	7.651469954174911
70.0	8.31121419371353
80.0	9.753158019348014
90.0	10.534678315865571
100.0	11.354158326882818
110.0	11.367295567874269
120.0	12.2323830893763
130.0	13.140130901679301
140.0	13.161911597170908
150.0	14.113645103945617
160.0	15.104400284076187
180.0	16.177677205764695
200.0	17.295222860582697
220.0	17.385836061209478
240.0	18.562377946158666
260.0	19.767675436199745
280.0	19.86196431655769
300.0	21.116208922728028
330.0	22.465484542097453
360.0	23.847793500955976
400.0	25.324312185450278
450.0	26.886993270403615
500.0	27.135417385307594
550.0	28.73956137372432
600.0	30.38100414485581
650.0	32.0375312796374
700.0	32.284316853371784
750.0	33.983296680579855
800.0	35.71356911658802
900.0	37.70571674937716
1000.0	39.90739586797988
1100.0	40.169557094219
1200.0	42.194742208282385
1300.0	44.258559793536
1500.0	46.72547008913837
1700.0	49.20222868938187
2000.0	53.76757629562847
2500.0	57.28672966545169
3000.0	62.48861674902434
4000.0	70.95610553436939
5000.0	75.4254723897923
6000.0	81.60016996930277
7000.0	85.68153357562949
8000.0	91.54442011516983
9000.0	95.372404509493
10000.0	100.17078810803608
12000.0	104.32285938429077
15000.0	112.55027970962342
20000.0	124.4198330573261
30000.0	140.21947490387623
50000.0	162.40250618075783
100000.0	198.25340357982793
