//WT channel integrated photon spectrum
MASS	Energy Spectrum
5.0	0.0
6.0	0.0
8.0	0.0
10.0	0.0
15.0	0.0
20.0	0.0
25.0	0.0
30.0	0.0
40.0	0.0
50.0	0.0
60.0	0.0
70.0	0.0
80.0	0.0
90.0	8.852218043962582
100.0	9.481624732017323
110.0	9.343577522889957
120.0	10.01019017033982
130.0	10.755388335292121
140.0	10.70979382238229
150.0	11.490164286310165
160.0	12.284199846696028
180.0	13.093166202624563
200.0	13.923603311855803
220.0	13.930307266089564
240.0	14.791866917428266
260.0	15.6646030698308
280.0	15.697933415778364
300.0	16.567775823687928
330.0	17.4620785693069
360.0	18.36918263660817
400.0	19.28162872756575
450.0	20.214523794438193
500.0	20.33928067492091
550.0	21.258249907525137
600.0	22.179508655075544
650.0	23.077889723585503
700.0	23.19891443693969
750.0	24.077552294005823
800.0	24.945500802965867
900.0	25.907104906719706
1000.0	26.966272618567142
1100.0	27.08295719915008
1200.0	27.99712544105572
1300.0	28.863549049957328
1500.0	29.94030586806184
1700.0	30.977107313378568
2000.0	32.73695922934212
2500.0	34.26053428267524
3000.0	36.18220856529673
4000.0	39.19352156276799
5000.0	41.135660307863105
6000.0	43.30596752349905
7000.0	44.97028128491688
8000.0	46.8332525907857
9000.0	48.304943155547925
10000.0	50.56537275048618
12000.0	52.04561034330575
15000.0	55.33944319139689
20000.0	60.06166274952788
30000.0	67.41074803394726
50000.0	78.50431096175431
100000.0	97.37030997549493
