//Mu channel integrated photon spectrum
MASS	Energy Spectrum
5.0	0.03174442065890917
6.0	0.0405100100424833
8.0	0.055764069985556136
10.0	0.06751732147886651
15.0	0.088715003405528
20.0	0.11037825189293046
25.0	0.12089402975717595
30.0	0.136678524023126
40.0	0.16262072869516908
50.0	0.17589676044202843
60.0	0.19500267895830076
70.0	0.20687067453757466
80.0	0.2256865451778977
90.0	0.23712984180745222
100.0	0.24856060162166788
110.0	0.2490274867281787
120.0	0.25608794261282525
130.0	0.26425818716641936
140.0	0.2690917645450826
150.0	0.27865286770726455
160.0	0.28816589626894146
180.0	0.3035576685838371
200.0	0.3193460170205
220.0	0.3301190098569159
240.0	0.3463389776132459
260.0	0.3624336992962448
280.0	0.37246371172884873
300.0	0.38926793507734203
330.0	0.4111209442130933
360.0	0.4330127832970875
400.0	0.4605529688245905
450.0	0.49158494049800766
500.0	0.5115259103618478
550.0	0.5423368826776311
600.0	0.5731364142156651
650.0	0.6043601596949426
700.0	0.6209873342625577
750.0	0.6520381490261521
800.0	0.6840083245756844
900.0	0.7307698370145179
1000.0	0.787229232789068
1100.0	0.8042379478446456
1200.0	0.8490476315179464
1300.0	0.8934229624111795
1500.0	0.9607159855306294
1700.0	1.024899438847043
2000.0	1.1285108197989488
2500.0	1.2380327287409159
3000.0	1.3603029919657685
4000.0	1.5573594376954996
5000.0	1.6868689653368294
6000.0	1.8208743193199552
7000.0	1.9217228199952383
8000.0	2.029700470633092
9000.0	2.1115021972135626
10000.0	2.2205156271912894
12000.0	2.3067241370697684
15000.0	2.463192733390625
20000.0	2.6583008457825823
30000.0	2.9223978357477485
50000.0	3.235526606769219
100000.0	3.5334755664992894
