//ZL channel integrated photon spectrum
MASS	Energy Spectrum
5.0	0.0
6.0	0.0
8.0	0.0
10.0	0.0
15.0	0.0
20.0	0.0
25.0	0.0
30.0	0.0
40.0	0.0
50.0	0.0
60.0	0.0
70.0	0.0
80.0	0.0
90.0	0.0
100.0	9.955044611983753
110.0	9.797331512268608
120.0	10.566558770003912
130.0	11.423683755148682
140.0	11.388652167998265
150.0	12.30457294813404
160.0	13.246823780090464
180.0	14.212965196041457
200.0	15.214550591713325
220.0	15.224425810229155
240.0	16.25722731110564
260.0	17.30324674911072
280.0	17.330946416020502
300.0	18.38881343028044
330.0	19.4660846697659
360.0	20.543460799235653
400.0	21.652016048966324
450.0	22.76812190910977
500.0	22.885338476924197
550.0	24.016448362481153
600.0	25.12649335114894
650.0	26.21877263630543
700.0	26.351867605385916
750.0	27.42278295450722
800.0	28.489021415416314
900.0	29.644201878313517
1000.0	30.897808523700817
1100.0	31.040170552660058
1200.0	32.146000288316614
1300.0	33.21505774492194
1500.0	34.49368610361978
1700.0	35.73185613756505
2000.0	37.8396627383668
2500.0	39.58528471242229
3000.0	41.831227223499894
4000.0	45.28228615739074
5000.0	47.421246178907694
6000.0	49.818718968358546
7000.0	51.61291406014362
8000.0	53.633012773173455
9000.0	55.19809353560495
10000.0	57.69594694231781
12000.0	59.15109442046005
15000.0	62.58970157980175
20000.0	67.49736601019535
30000.0	75.21798794444736
50000.0	86.95501875790656
100000.0	107.28940317575316
